14.4
(a)
Time
N
1001
0
0.1
0.2
0.3
0.4
0.5
0.6
0.7
0.8
0.9
1
1.1
1.2
1.3
1.4
1.5
1.6
1.7
1.8
1.9
2
2.1
2.2
2.3
2.4
2.5
2.6
2.7
2.8
2.9
3
3.1
3.2
3.3
3.4
3.5
3.6
3.7
3.8
3.9
4
4.1
4.2
4.3
4.4
4.5
4.6
4.7
4.8
4.9
5
5.1
5.2
5.3
5.4
5.5
5.6
5.7
5.8
5.9
6
6.1
6.2
6.3
6.4
6.5
6.6
6.7
6.8
6.9
7
7.1
7.2
7.3
7.4
7.5
7.6
7.7
7.8
7.9
8
8.1
8.2
8.3
8.4
8.5
8.6
8.7
8.8
8.9
9
9.1
9.2
9.3
9.4
9.5
9.6
9.7
9.8
9.9
10
10.1
10.2
10.3
10.4
10.5
10.6
10.7
10.8
10.9
11
11.1
11.2
11.3
11.4
11.5
11.6
11.7
11.8
11.9
12
12.1
12.2
12.3
12.4
12.5
12.6
12.7
12.8
12.9
13
13.1
13.2
13.3
13.4
13.5
13.6
13.7
13.8
13.9
14
14.1
14.2
14.3
14.4
14.5
14.6
14.7
14.8
14.9
15
15.1
15.2
15.3
15.4
15.5
15.6
15.7
15.8
15.9
16
16.1
16.2
16.3
16.4
16.5
16.6
16.7
16.8
16.9
17
17.1
17.2
17.3
17.4
17.5
17.6
17.7
17.8
17.9
18
18.1
18.2
18.3
18.4
18.5
18.6
18.7
18.8
18.9
19
19.1
19.2
19.3
19.4
19.5
19.6
19.7
19.8
19.9
20
20.1
20.2
20.3
20.4
20.5
20.6
20.7
20.8
20.9
21
21.1
21.2
21.3
21.4
21.5
21.6
21.7
21.8
21.9
22
22.1
22.2
22.3
22.4
22.5
22.6
22.7
22.8
22.9
23
23.1
23.2
23.3
23.4
23.5
23.6
23.7
23.8
23.9
24
24.1
24.2
24.3
24.4
24.5
24.6
24.7
24.8
24.9
25
25.1
25.2
25.3
25.4
25.5
25.6
25.7
25.8
25.9
26
26.1
26.2
26.3
26.4
26.5
26.6
26.7
26.8
26.9
27
27.1
27.2
27.3
27.4
27.5
27.6
27.7
27.8
27.9
28
28.1
28.2
28.3
28.4
28.5
28.6
28.7
28.8
28.9
29
29.1
29.2
29.3
29.4
29.5
29.6
29.7
29.8
29.9
30
30.1
30.2
30.3
30.4
30.5
30.6
30.7
30.8
30.9
31
31.1
31.2
31.3
31.4
31.5
31.6
31.7
31.8
31.9
32
32.1
32.2
32.3
32.4
32.5
32.6
32.7
32.8
32.9
33
33.1
33.2
33.3
33.4
33.5
33.6
33.7
33.8
33.9
34
34.1
34.2
34.3
34.4
34.5
34.6
34.7
34.8
34.9
35
35.1
35.2
35.3
35.4
35.5
35.6
35.7
35.8
35.9
36
36.1
36.2
36.3
36.4
36.5
36.6
36.7
36.8
36.9
37
37.1
37.2
37.3
37.4
37.5
37.6
37.7
37.8
37.9
38
38.1
38.2
38.3
38.4
38.5
38.6
38.7
38.8
38.9
39
39.1
39.2
39.3
39.4
39.5
39.6
39.7
39.8
39.9
40
40.1
40.2
40.3
40.4
40.5
40.6
40.7
40.8
40.9
41
41.1
41.2
41.3
41.4
41.5
41.6
41.7
41.8
41.9
42
42.1
42.2
42.3
42.4
42.5
42.6
42.7
42.8
42.9
43
43.1
43.2
43.3
43.4
43.5
43.6
43.7
43.8
43.9
44
44.1
44.2
44.3
44.4
44.5
44.6
44.7
44.8
44.9
45
45.1
45.2
45.3
45.4
45.5
45.6
45.7
45.8
45.9
46
46.1
46.2
46.3
46.4
46.5
46.6
46.7
46.8
46.9
47
47.1
47.2
47.3
47.4
47.5
47.6
47.7
47.8
47.9
48
48.1
48.2
48.3
48.4
48.5
48.6
48.7
48.8
48.9
49
49.1
49.2
49.3
49.4
49.5
49.6
49.7
49.8
49.9
50
50.1
50.2
50.3
50.4
50.5
50.6
50.7
50.8
50.9
51
51.1
51.2
51.3
51.4
51.5
51.6
51.7
51.8
51.9
52
52.1
52.2
52.3
52.4
52.5
52.6
52.7
52.8
52.9
53
53.1
53.2
53.3
53.4
53.5
53.6
53.7
53.8
53.9
54
54.1
54.2
54.3
54.4
54.5
54.6
54.7
54.8
54.9
55
55.1
55.2
55.3
55.4
55.5
55.6
55.7
55.8
55.9
56
56.1
56.2
56.3
56.4
56.5
56.6
56.7
56.8
56.9
57
57.1
57.2
57.3
57.4
57.5
57.6
57.7
57.8
57.9
58
58.1
58.2
58.3
58.4
58.5
58.6
58.7
58.8
58.9
59
59.1
59.2
59.3
59.4
59.5
59.6
59.7
59.8
59.9
60
60.1
60.2
60.3
60.4
60.5
60.6
60.7
60.8
60.9
61
61.1
61.2
61.3
61.4
61.5
61.6
61.7
61.8
61.9
62
62.1
62.2
62.3
62.4
62.5
62.6
62.7
62.8
62.9
63
63.1
63.2
63.3
63.4
63.5
63.6
63.7
63.8
63.9
64
64.1
64.2
64.3
64.4
64.5
64.6
64.7
64.8
64.9
65
65.1
65.2
65.3
65.4
65.5
65.6
65.7
65.8
65.9
66
66.1
66.2
66.3
66.4
66.5
66.6
66.7
66.8
66.9
67
67.1
67.2
67.3
67.4
67.5
67.6
67.7
67.8
67.9
68
68.1
68.2
68.3
68.4
68.5
68.6
68.7
68.8
68.9
69
69.1
69.2
69.3
69.4
69.5
69.6
69.7
69.8
69.9
70
70.1
70.2
70.3
70.4
70.5
70.6
70.7
70.8
70.9
71
71.1
71.2
71.3
71.4
71.5
71.6
71.7
71.8
71.9
72
72.1
72.2
72.3
72.4
72.5
72.6
72.7
72.8
72.9
73
73.1
73.2
73.3
73.4
73.5
73.6
73.7
73.8
73.9
74
74.1
74.2
74.3
74.4
74.5
74.6
74.7
74.8
74.9
75
75.1
75.2
75.3
75.4
75.5
75.6
75.7
75.8
75.9
76
76.1
76.2
76.3
76.4
76.5
76.6
76.7
76.8
76.9
77
77.1
77.2
77.3
77.4
77.5
77.6
77.7
77.8
77.9
78
78.1
78.2
78.3
78.4
78.5
78.6
78.7
78.8
78.9
79
79.1
79.2
79.3
79.4
79.5
79.6
79.7
79.8
79.9
80
80.1
80.2
80.3
80.4
80.5
80.6
80.7
80.8
80.9
81
81.1
81.2
81.3
81.4
81.5
81.6
81.7
81.8
81.9
82
82.1
82.2
82.3
82.4
82.5
82.6
82.7
82.8
82.9
83
83.1
83.2
83.3
83.4
83.5
83.6
83.7
83.8
83.9
84
84.1
84.2
84.3
84.4
84.5
84.6
84.7
84.8
84.9
85
85.1
85.2
85.3
85.4
85.5
85.6
85.7
85.8
85.9
86
86.1
86.2
86.3
86.4
86.5
86.6
86.7
86.8
86.9
87
87.1
87.2
87.3
87.4
87.5
87.6
87.7
87.8
87.9
88
88.1
88.2
88.3
88.4
88.5
88.6
88.7
88.8
88.9
89
89.1
89.2
89.3
89.4
89.5
89.6
89.7
89.8
89.9
90
90.1
90.2
90.3
90.4
90.5
90.6
90.7
90.8
90.9
91
91.1
91.2
91.3
91.4
91.5
91.6
91.7
91.8
91.9
92
92.1
92.2
92.3
92.4
92.5
92.6
92.7
92.8
92.9
93
93.1
93.2
93.3
93.4
93.5
93.6
93.7
93.8
93.9
94
94.1
94.2
94.3
94.4
94.5
94.6
94.7
94.8
94.9
95
95.1
95.2
95.3
95.4
95.5
95.6
95.7
95.8
95.9
96
96.1
96.2
96.3
96.4
96.5
96.6
96.7
96.8
96.9
97
97.1
97.2
97.3
97.4
97.5
97.6
97.7
97.8
97.9
98
98.1
98.2
98.3
98.4
98.5
98.6
98.7
98.8
98.9
99
99.1
99.2
99.3
99.4
99.5
99.6
99.7
99.8
99.9
100
200
200
199.997
199.991
199.983
199.972
199.959
199.944
199.926
199.907
199.885
199.862
199.836
199.81
199.781
199.751
199.72
199.687
199.653
199.618
199.581
199.544
199.505
199.466
199.426
199.384
199.342
199.3
199.256
199.212
199.167
199.122
199.076
199.03
198.983
198.935
198.888
198.84
198.791
198.742
198.693
198.644
198.594
198.545
198.495
198.445
198.394
198.344
198.294
198.243
198.192
198.142
198.091
198.04
197.99
197.939
197.888
197.838
197.787
197.736
197.686
197.635
197.585
197.535
197.485
197.435
197.385
197.335
197.285
197.236
197.187
197.137
197.088
197.04
196.991
196.942
196.894
196.846
196.798
196.75
196.703
196.656
196.609
196.562
196.515
196.468
196.422
196.376
196.33
196.285
196.24
196.194
196.149
196.105
196.06
196.016
195.972
195.929
195.885
195.842
195.799
195.756
195.713
195.671
195.629
195.587
195.546
195.504
195.463
195.422
195.382
195.341
195.301
195.261
195.221
195.182
195.142
195.103
195.065
195.026
194.988
194.95
194.912
194.874
194.837
194.8
194.763
194.726
194.689
194.653
194.617
194.581
194.545
194.51
194.475
194.44
194.405
194.37
194.336
194.302
194.268
194.234
194.201
194.167
194.134
194.101
194.068
194.036
194.003
193.971
193.939
193.908
193.876
193.845
193.813
193.782
193.751
193.721
193.69
193.66
193.63
193.6
193.57
193.541
193.511
193.482
193.453
193.424
193.395
193.367
193.339
193.31
193.282
193.254
193.227
193.199
193.172
193.145
193.117
193.09
193.064
193.037
193.011
192.984
192.958
192.932
192.906
192.88
192.855
192.829
192.804
192.779
192.754
192.729
192.704
192.68
192.655
192.631
192.607
192.583
192.559
192.535
192.511
192.488
192.464
192.441
192.418
192.395
192.372
192.349
192.326
192.304
192.281
192.259
192.237
192.214
192.192
192.171
192.149
192.127
192.106
192.084
192.063
192.042
192.02
191.999
191.979
191.958
191.937
191.916
191.896
191.876
191.855
191.835
191.815
191.795
191.775
191.755
191.736
191.716
191.697
191.677
191.658
191.639
191.619
191.6
191.581
191.562
191.544
191.525
191.506
191.488
191.469
191.451
191.433
191.415
191.396
191.378
191.36
191.343
191.325
191.307
191.289
191.272
191.254
191.237
191.22
191.202
191.185
191.168
191.151
191.134
191.117
191.101
191.084
191.067
191.051
191.034
191.018
191.001
190.985
190.969
190.952
190.936
190.92
190.904
190.888
190.873
190.857
190.841
190.825
190.81
190.794
190.779
190.763
190.748
190.733
190.717
190.702
190.687
190.672
190.657
190.642
190.627
190.613
190.598
190.583
190.568
190.554
190.539
190.525
190.51
190.496
190.482
190.467
190.453
190.439
190.425
190.411
190.397
190.383
190.369
190.355
190.341
190.328
190.314
190.3
190.287
190.273
190.26
190.246
190.233
190.219
190.206
190.193
190.179
190.166
190.153
190.14
190.127
190.114
190.101
190.088
190.075
190.062
190.05
190.037
190.024
190.012
189.999
189.986
189.974
189.961
189.949
189.936
189.924
189.912
189.899
189.887
189.875
189.863
189.851
189.839
189.827
189.815
189.803
189.791
189.779
189.767
189.755
189.743
189.732
189.72
189.708
189.696
189.685
189.673
189.662
189.65
189.639
189.627
189.616
189.605
189.593
189.582
189.571
189.56
189.548
189.537
189.526
189.515
189.504
189.493
189.482
189.471
189.46
189.449
189.438
189.427
189.417
189.406
189.395
189.384
189.374
189.363
189.352
189.342
189.331
189.321
189.31
189.3
189.289
189.279
189.269
189.258
189.248
189.238
189.227
189.217
189.207
189.197
189.187
189.176
189.166
189.156
189.146
189.136
189.126
189.116
189.106
189.096
189.086
189.077
189.067
189.057
189.047
189.037
189.028
189.018
189.008
188.999
188.989
188.979
188.97
188.96
188.951
188.941
188.932
188.922
188.913
188.904
188.894
188.885
188.875
188.866
188.857
188.848
188.838
188.829
188.82
188.811
188.802
188.793
188.783
188.774
188.765
188.756
188.747
188.738
188.729
188.72
188.711
188.703
188.694
188.685
188.676
188.667
188.658
188.65
188.641
188.632
188.623
188.615
188.606
188.598
188.589
188.58
188.572
188.563
188.555
188.546
188.538
188.529
188.521
188.512
188.504
188.495
188.487
188.479
188.47
188.462
188.454
188.445
188.437
188.429
188.421
188.413
188.404
188.396
188.388
188.38
188.372
188.364
188.356
188.348
188.34
188.332
188.324
188.316
188.308
188.3
188.292
188.284
188.276
188.268
188.26
188.252
188.245
188.237
188.229
188.221
188.214
188.206
188.198
188.19
188.183
188.175
188.167
188.16
188.152
188.145
188.137
188.129
188.122
188.114
188.107
188.099
188.092
188.084
188.077
188.07
188.062
188.055
188.047
188.04
188.033
188.025
188.018
188.011
188.004
187.996
187.989
187.982
187.975
187.967
187.96
187.953
187.946
187.939
187.932
187.924
187.917
187.91
187.903
187.896
187.889
187.882
187.875
187.868
187.861
187.854
187.847
187.84
187.833
187.827
187.82
187.813
187.806
187.799
187.792
187.785
187.779
187.772
187.765
187.758
187.752
187.745
187.738
187.731
187.725
187.718
187.711
187.705
187.698
187.691
187.685
187.678
187.672
187.665
187.659
187.652
187.646
187.639
187.633
187.626
187.62
187.613
187.607
187.6
187.594
187.587
187.581
187.575
187.568
187.562
187.556
187.549
187.543
187.537
187.53
187.524
187.518
187.512
187.505
187.499
187.493
187.487
187.481
187.474
187.468
187.462
187.456
187.45
187.444
187.438
187.432
187.426
187.419
187.413
187.407
187.401
187.395
187.389
187.383
187.377
187.371
187.365
187.36
187.354
187.348
187.342
187.336
187.33
187.324
187.318
187.312
187.307
187.301
187.295
187.289
187.283
187.278
187.272
187.266
187.26
187.255
187.249
187.243
187.238
187.232
187.226
187.22
187.215
187.209
187.204
187.198
187.192
187.187
187.181
187.176
187.17
187.164
187.159
187.153
187.148
187.142
187.137
187.131
187.126
187.12
187.115
187.11
187.104
187.099
187.093
187.088
187.083
187.077
187.072
187.066
187.061
187.056
187.05
187.045
187.04
187.034
187.029
187.024
187.019
187.013
187.008
187.003
186.998
186.992
186.987
186.982
186.977
186.972
186.967
186.961
186.956
186.951
186.946
186.941
186.936
186.931
186.926
186.92
186.915
186.91
186.905
186.9
186.895
186.89
186.885
186.88
186.875
186.87
186.865
186.86
186.855
186.85
186.846
186.841
186.836
186.831
186.826
186.821
186.816
186.811
186.806
186.802
186.797
186.792
186.787
186.782
186.777
186.773
186.768
186.763
186.758
186.754
186.749
186.744
186.739
186.735
186.73
186.725
186.721
186.716
186.711
186.707
186.702
186.697
186.693
186.688
186.683
186.679
186.674
186.67
186.665
186.66
186.656
186.651
186.647
186.642
186.638
186.633
186.629
186.624
186.62
186.615
186.611
186.606
186.602
186.597
186.593
186.588
186.584
186.579
186.575
186.571
186.566
186.562
186.557
186.553
186.549
186.544
186.54
186.536
186.531
186.527
186.523
186.518
186.514
186.51
186.506
186.501
186.497
186.493
186.488
186.484
186.48
186.476
186.472
186.467
186.463
186.459
186.455
186.451
186.446
186.442
186.438
186.434
186.43
186.426
186.422
186.417
186.413
186.409
186.405
186.401
186.397
186.393
186.389
186.385
186.381
186.377
186.373
186.369
186.365
186.361
186.357
186.353
186.349
186.345
186.341
186.337
186.333
186.329
186.325
186.321
186.317
186.313
186.309
186.305
186.301
186.297
186.294
186.29
186.286
186.282
186.278
186.274
186.27
186.267
186.263
186.259
186.255
186.251
186.247
186.244
186.24
186.236
186.232
186.229
186.225
186.221
186.217
186.214
186.21
186.206
186.202
186.199
186.195
186.191
186.188
186.184
186.18
186.177
186.173
186.169
186.166
186.162
186.158
186.155
186.151
186.148
186.144
186.14
186.137
186.133
186.13
186.126
186.122
186.119
186.115
186.112
186.108
186.105
186.101
186.098
186.094
186.091
186.087
186.084
186.08
186.077
186.073
186.07
186.066
186.063
186.059
186.056
186.053
186.049
186.046
186.042
186.039
186.035
186.032
186.029
186.025
186.022
186.019
186.015
186.012
186.008
186.005
186.002
185.998
185.995
185.992
185.988
185.985
185.982
185.979
185.975
185.972
185.969
185.965
185.962
185.959
185.956
185.952
185.949
185.946
185.943
185.939
185.936
185.933
185.93
185.927
185.923
185.92
185.917
185.914
185.911
185.907
185.904
185.901
185.898
185.895
185.892
185.889
185.885
185.882
185.879
185.876
185.873
185.87
200
200
199.997
199.991
199.983
199.972
199.959
199.944
199.926
199.907
199.885
199.862
199.836
199.81
199.781
199.751
199.72
199.687
199.653
199.618
199.581
199.544
199.505
199.466
199.426
199.384
199.342
199.3
199.256
199.212
199.167
199.122
199.076
199.03
198.983
198.935
198.888
198.839
198.791
198.742
198.693
198.644
198.594
198.545
198.495
198.445
198.394
198.344
198.294
198.243
198.192
198.142
198.091
198.04
197.99
197.939
197.888
197.838
197.787
197.736
197.686
197.636
197.585
197.535
197.485
197.435
197.385
197.335
197.286
197.236
197.187
197.138
197.089
197.04
196.991
196.943
196.895
196.847
196.799
196.751
196.704
196.656
196.609
196.562
196.516
196.469
196.423
196.377
196.332
196.286
196.241
196.196
196.151
196.106
196.062
196.018
195.974
195.93
195.887
195.844
195.801
195.758
195.716
195.673
195.631
195.59
195.548
195.507
195.466
195.425
195.384
195.344
195.304
195.264
195.225
195.185
195.146
195.107
195.069
195.03
194.992
194.954
194.916
194.879
194.841
194.804
194.767
194.731
194.694
194.658
194.622
194.587
194.551
194.516
194.481
194.446
194.411
194.377
194.343
194.309
194.275
194.241
194.208
194.175
194.142
194.109
194.077
194.044
194.012
193.98
193.948
193.917
193.885
193.854
193.823
193.792
193.762
193.731
193.701
193.671
193.641
193.611
193.582
193.552
193.523
193.494
193.465
193.437
193.408
193.38
193.352
193.324
193.296
193.268
193.241
193.214
193.187
193.16
193.133
193.106
193.08
193.053
193.027
193.001
192.975
192.949
192.924
192.898
192.873
192.848
192.823
192.798
192.773
192.748
192.724
192.7
192.675
192.651
192.627
192.604
192.58
192.556
192.533
192.51
192.487
192.464
192.441
192.418
192.395
192.373
192.35
192.328
192.306
192.284
192.262
192.24
192.219
192.197
192.176
192.154
192.133
192.112
192.091
192.07
192.049
192.028
192.008
191.987
191.967
191.947
191.927
191.907
191.887
191.867
191.847
191.827
191.808
191.788
191.769
191.75
191.73
191.711
191.692
191.673
191.655
191.636
191.617
191.599
191.58
191.562
191.544
191.525
191.507
191.489
191.471
191.454
191.436
191.418
191.401
191.383
191.366
191.348
191.331
191.314
191.297
191.28
191.263
191.246
191.229
191.212
191.195
191.179
191.162
191.146
191.13
191.113
191.097
191.081
191.065
191.049
191.033
191.017
191.001
190.985
190.97
190.954
190.938
190.923
190.908
190.892
190.877
190.862
190.846
190.831
190.816
190.801
190.786
190.772
190.757
190.742
190.727
190.713
190.698
190.684
190.669
190.655
190.64
190.626
190.612
190.598
190.584
190.57
190.556
190.542
190.528
190.514
190.5
190.486
190.473
190.459
190.445
190.432
190.418
190.405
190.392
190.378
190.365
190.352
190.339
190.325
190.312
190.299
190.286
190.273
190.26
190.248
190.235
190.222
190.209
190.197
190.184
190.171
190.159
190.146
190.134
190.121
190.109
190.097
190.084
190.072
190.06
190.048
190.036
190.024
190.012
190
189.988
189.976
189.964
189.952
189.94
189.928
189.917
189.905
189.893
189.882
189.87
189.859
189.847
189.836
189.824
189.813
189.801
189.79
189.779
189.768
189.756
189.745
189.734
189.723
189.712
189.701
189.69
189.679
189.668
189.657
189.646
189.635
189.625
189.614
189.603
189.592
189.582
189.571
189.56
189.55
189.539
189.529
189.518
189.508
189.498
189.487
189.477
189.466
189.456
189.446
189.436
189.425
189.415
189.405
189.395
189.385
189.375
189.365
189.355
189.345
189.335
189.325
189.315
189.305
189.295
189.286
189.276
189.266
189.256
189.247
189.237
189.227
189.218
189.208
189.199
189.189
189.179
189.17
189.161
189.151
189.142
189.132
189.123
189.114
189.104
189.095
189.086
189.077
189.067
189.058
189.049
189.04
189.031
189.022
189.013
189.004
188.994
188.985
188.977
188.968
188.959
188.95
188.941
188.932
188.923
188.914
188.906
188.897
188.888
188.879
188.871
188.862
188.853
188.845
188.836
188.827
188.819
188.81
188.802
188.793
188.785
188.776
188.768
188.76
188.751
188.743
188.734
188.726
188.718
188.709
188.701
188.693
188.685
188.676
188.668
188.66
188.652
188.644
188.636
188.628
188.619
188.611
188.603
188.595
188.587
188.579
188.571
188.563
188.556
188.548
188.54
188.532
188.524
188.516
188.508
188.501
188.493
188.485
188.477
188.47
188.462
188.454
188.446
188.439
188.431
188.424
188.416
188.408
188.401
188.393
188.386
188.378
188.371
188.363
188.356
188.348
188.341
188.334
188.326
188.319
188.311
188.304
188.297
188.289
188.282
188.275
188.268
188.26
188.253
188.246
188.239
188.231
188.224
188.217
188.21
188.203
188.196
188.189
188.182
188.175
188.168
188.161
188.154
188.147
188.14
188.133
188.126
188.119
188.112
188.105
188.098
188.091
188.084
188.077
188.071
188.064
188.057
188.05
188.043
188.037
188.03
188.023
188.017
188.01
188.003
187.996
187.99
187.983
187.977
187.97
187.963
187.957
187.95
187.944
187.937
187.931
187.924
187.918
187.911
187.905
187.898
187.892
187.885
187.879
187.872
187.866
187.86
187.853
187.847
187.841
187.834
187.828
187.822
187.815
187.809
187.803
187.797
187.79
187.784
187.778
187.772
187.766
187.759
187.753
187.747
187.741
187.735
187.729
187.723
187.717
187.711
187.704
187.698
187.692
187.686
187.68
187.674
187.668
187.662
187.656
187.651
187.645
187.639
187.633
187.627
187.621
187.615
187.609
187.603
187.598
187.592
187.586
187.58
187.574
187.569
187.563
187.557
187.551
187.546
187.54
187.534
187.528
187.523
187.517
187.511
187.506
187.5
187.495
187.489
187.483
187.478
187.472
187.467
187.461
187.455
187.45
187.444
187.439
187.433
187.428
187.422
187.417
187.411
187.406
187.401
187.395
187.39
187.384
187.379
187.374
187.368
187.363
187.357
187.352
187.347
187.341
187.336
187.331
187.326
187.32
187.315
187.31
187.304
187.299
187.294
187.289
187.284
187.278
187.273
187.268
187.263
187.258
187.253
187.247
187.242
187.237
187.232
187.227
187.222
187.217
187.212
187.207
187.202
187.197
187.192
187.187
187.182
187.177
187.172
187.167
187.162
187.157
187.152
187.147
187.142
187.137
187.132
187.127
187.122
187.117
187.112
187.108
187.103
187.098
187.093
187.088
187.083
187.079
187.074
187.069
187.064
187.059
187.055
187.05
187.045
187.04
187.036
187.031
187.026
187.022
187.017
187.012
187.008
187.003
186.998
186.994
186.989
186.984
186.98
186.975
186.971
186.966
186.961
186.957
186.952
186.948
186.943
186.939
186.934
186.93
186.925
186.92
186.916
186.912
186.907
186.903
186.898
186.894
186.889
186.885
186.88
186.876
186.872
186.867
186.863
186.858
186.854
186.85
186.845
186.841
186.837
186.832
186.828
186.824
186.819
186.815
186.811
186.806
186.802
186.798
186.794
186.789
186.785
186.781
186.777
186.772
186.768
186.764
186.76
186.756
186.751
186.747
186.743
186.739
186.735
186.731
186.726
186.722
186.718
186.714
186.71
186.706
186.702
186.698
186.694
186.69
186.686
186.681
186.677
186.673
186.669
186.665
186.661
186.657
186.653
186.649
186.645
186.641
186.637
186.633
186.63
186.626
186.622
186.618
186.614
186.61
186.606
186.602
186.598
186.594
186.59
186.587
186.583
186.579
186.575
186.571
186.567
186.563
186.56
186.556
186.552
186.548
186.544
186.541
186.537
186.533
186.529
186.526
186.522
186.518
186.514
186.511
186.507
186.503
186.499
186.496
186.492
186.488
186.485
186.481
186.477
186.474
186.47
186.466
186.463
186.459
186.456
186.452
186.448
186.445
186.441
186.437
186.434
186.43
186.427
186.423
186.42
186.416
186.413
186.409
186.405
186.402
186.398
186.395
186.391
186.388
186.384
186.381
186.377
186.374
186.371
186.367
186.364
186.36
186.357
186.353
186.35
186.346
186.343
186.34
186.336
186.333
186.329
186.326
186.323
186.319
186.316
186.313
186.309
186.306
186.303
186.299
186.296
186.293
186.289
186.286
186.283
186.279
186.276
186.273
186.269
186.266
186.263
186.26
186.256
186.253
186.25
186.247
186.243
186.24
186.237
186.234
186.231
186.227
186.224
186.221
186.218
186.215
186.211
186.208
186.205
186.202
186.199
186.196
186.193
186.189
186.186
186.183
186.18
186.177
186.174
186.171
186.168
186.165
186.162
186.158
186.155
186.152
186.149
186.146
186.143
186.14
186.137
186.134
186.131
186.128
186.125
186.122
186.119
186.116
186.113
186.11
186.107
186.104
186.101
